MIN=0	-10	-1000
MAX=80	10	1000
SCALE=80	5	500
DEC=1	2	0
DEF="Time" t / s	"Current" I_A1 / A	"Magn. flux density" B_B1 / mT
0	0.05	-0.5
0.099	0.055	-0.5
0.199	0.055	-0.5
0.3	0.055	-0.5
0.399	0.05	-0.5
0.5	0.055	-0.5
0.599	0.055	-0.5
0.699	0.055	-0.5
0.799	0.055	-0.5
0.9	0.055	-0.5
0.999	0.055	-0.5
1.099	0.055	-0.5
1.199	0.055	-0.5
1.299	0.05	-0.5
1.4	0.055	-0.5
1.499	0.05	-0.5
1.599	0.055	-0.5
1.699	0.05	-0.5
1.799	0.05	-0.5
1.899	0.055	-0.5
2	0.055	0
2.099	0.055	-0.5
2.199	0.055	-0.5
2.299	0.055	-0.5
2.4	0.055	-0.5
2.5	0.055	-0.5
2.6	0.055	-0.5
2.7	0.05	-0.5
2.8	0.055	-0.5
2.9	0.055	-0.5
3	0.055	-0.5
3.1	0.055	-0.5
3.2	0.255	13
3.3	0.93	53.5
3.4	0.68	40
3.5	0.83	48
3.6	0.755	45
3.7	0.84	48.5
3.8	0.79	46
3.9	0.815	47
4.003	0.88	52
4.1	1.015	59.5
4.2	0.905	53.5
4.3	0.96	56.5
4.4	0.94	55.5
4.5	0.955	56
4.6	0.945	55.5
4.7	0.93	55
4.8	0.93	55
4.9	0.965	56.5
5	1.03	60.5
5.1	1.055	62.5
5.2	1.04	62
5.3	1.115	66.5
5.4	1.455	89.5
5.5	1.6	98
5.6	1.535	95.5
5.7	1.555	96.5
5.8	1.57	97
5.9	1.56	96.5
6	1.595	98.5
6.1	1.585	97.5
6.2	1.615	100
6.3	1.6	99
6.4	1.615	99.5
6.5	1.605	99
6.6	1.61	99.5
6.7	1.61	100.5
6.8	1.615	99.5
6.9	1.645	101.5
7	1.65	101.5
7.1	1.685	104
7.2	1.665	103
7.3	1.7	105.5
7.4	1.76	109
7.5	1.765	110
7.6	1.795	111.5
7.7	1.78	111
7.8	1.79	111.5
7.9	1.855	115.5
8	1.86	115.5
8.1	1.87	116
8.199	1.93	121.5
8.3	1.995	125.5
8.4	2.025	126.5
8.5	2.01	126.5
8.6	2.38	150.5
8.7	2.175	138.5
8.8	2.435	154.5
8.9	2.345	149.5
9	2.49	158
9.1	2.5	159.5
9.2	2.55	162
9.3	2.535	161.5
9.4	2.53	161
9.5	2.585	164.5
9.6	2.55	162.5
9.7	2.57	163.5
9.8	2.56	163
9.9	2.61	166
10	2.58	164.5
10.1	2.69	171.5
10.2	2.615	167.5
10.3	2.665	170
10.4	2.63	168
10.5	2.71	173
10.6	2.73	174
10.7	2.745	175.5
10.8	2.735	175
10.9	2.78	177.5
11	2.85	182.5
11.1	2.815	180.5
11.2	2.92	187
11.3	2.885	184.5
11.4	2.935	188
11.5	2.92	187
11.6	3.01	192.5
11.7	2.97	190.5
11.8	3.005	192.5
11.9	2.995	192
12	3.005	192.5
12.1	3.03	194.5
12.2	3.085	197.5
12.309	3.07	197
12.4	3.065	198
12.5	3.065	196.5
12.6	3.15	202
12.7	3.145	202
12.8	3.16	203
12.9	3.155	202.5
13	3.155	203
13.1	3.145	202.5
13.2	3.17	203.5
13.3	3.155	202.5
13.4	3.185	204.5
13.5	3.265	210
13.6	3.265	210
13.7	3.24	208
13.8	3.34	214.5
13.9	3.29	212
14	3.315	213.5
14.1	3.625	233.5
14.2	3.455	224
14.3	3.545	228.5
14.4	3.495	226.5
14.5	3.615	233
14.6	3.615	233
14.7	3.73	240.5
14.801	3.745	241.5
14.9	3.74	241.5
14.999	3.76	242.5
15.1	3.745	242
15.2	3.755	242.5
15.3	3.96	255.5
15.4	3.875	251
15.5	3.935	254
15.6	3.975	256.5
15.699	3.955	256
15.799	3.96	256
15.899	3.965	256
15.999	3.96	256
16.099	4.005	258.5
16.199	4.005	258.5
16.299	4.02	259.5
16.399	4.09	264
16.499	4.055	262
16.599	4.065	262.5
16.699	4.08	263.5
16.799	4.09	264
16.899	4.09	264
16.999	4.09	264
17.099	4.17	269
17.199	4.12	266.5
17.299	4.14	267.5
17.399	4.205	271.5
17.499	4.23	273
17.599	4.225	273
17.699	4.29	277.5
17.799	4.495	290
17.899	4.375	284.5
17.999	4.415	286
18.099	4.56	294.5
18.199	4.65	299.5
18.299	4.665	301.5
18.399	4.735	305
18.499	4.695	303.5
18.599	4.7	303.5
18.699	4.755	306
18.799	4.78	308
18.899	4.805	309.5
18.999	4.805	309.5
19.099	4.8	309.5
19.199	4.8	309.5
19.3	4.8	309
19.399	4.82	310.5
19.499	4.87	313.5
19.599	4.88	314
19.699	4.88	314
19.799	4.885	314
19.899	4.89	314.5
19.999	4.885	314.5
20.099	4.89	314.5
20.199	4.89	314.5
20.299	4.89	314.5
20.399	4.89	314.5
20.499	4.895	314.5
20.599	4.895	314.5
20.699	4.895	315
20.799	4.895	315
20.899	4.895	315
20.999	4.895	315
21.099	4.895	315
21.2	4.895	315
21.299	4.895	315
21.399	4.895	315
21.499	4.895	315
21.599	4.9	315
21.699	4.9	315.5
21.8	4.9	315.5
21.899	4.9	315.5
21.999	4.905	315.5
22.099	4.905	315.5
22.199	4.905	315.5
22.3	4.93	317
22.399	5.095	327
22.5	5.28	337.5
22.6	5.655	357.5
22.7	5.865	368
22.8	5.615	358.5
22.9	5.785	364.5
23	5.735	363
23.1	5.735	363
23.2	5.73	363
23.3	5.755	363.5
23.4	5.745	363.5
23.5	5.715	362
23.6	5.77	365
23.7	5.885	369
23.8	5.915	370.5
23.9	5.86	368.5
24	5.93	371.5
24.1	6.025	375.5
24.2	6.04	376
24.3	6.025	375.5
24.4	6.03	375.5
24.5	6.11	378.5
24.6	6.105	378.5
24.7	6.07	378
24.8	6.15	380.5
24.9	6.165	381.5
25	6.185	382
25.1	6.165	381.5
25.2	6.18	382
25.3	6.175	381.5
25.4	6.18	381.5
25.5	6.18	382
25.6	6.17	381.5
25.7	6.175	382
25.8	6.16	381
25.9	6.32	387.5
26	6.205	384.5
26.1	6.28	386
26.2	6.335	388.5
26.3	6.385	390.5
26.4	6.375	389.5
26.5	6.36	389.5
26.6	6.355	389.5
26.7	6.36	389.5
26.8	6.545	396
26.9	6.465	393.5
27	6.47	394
27.1	6.5	395
27.2	6.615	399
27.3	6.61	398.5
27.401	6.615	398.5
27.5	6.62	399
27.6	6.62	399
27.7	6.7	401.5
27.8	6.675	400.5
27.9	6.68	400.5
28.001	6.695	401
28.1	6.675	400.5
28.2	6.675	400.5
28.3	6.68	400.5
28.4	6.68	401
28.5	6.685	401
28.6	6.685	401
28.7	6.685	401
28.8	6.685	401
28.9	6.7	401.5
29	6.685	401
29.1	6.685	401.5
29.2	6.685	401.5
29.3	6.68	401
29.4	6.69	401
29.5	6.69	401.5
29.6	6.69	401
29.7	6.695	401.5
29.8	6.695	401.5
29.9	6.695	401.5
30	6.735	402.5
30.1	6.685	401
30.2	6.68	401
30.3	6.895	408
30.4	6.63	401
30.5	6.725	403.5
30.6	6.745	404
30.7	6.75	404
30.8	6.755	404
30.9	6.745	404
31	6.735	403.5
31.1	6.9	408.5
31.2	6.845	407
31.3	6.865	407.5
31.4	6.875	408
31.5	6.875	408
31.6	6.875	408
31.7	6.88	408
31.8	6.995	411.5
31.9	6.99	411
32	6.985	411.5
32.1	7	411.5
32.2	7.01	412
32.3	7.03	412.5
32.4	7.05	413
32.5	7.16	416
32.6	7.12	415.5
32.7	7.185	417
32.801	7.165	416
32.899	7.22	418.5
32.999	7.315	421
33.1	7.33	421.5
33.2	7.395	423
33.299	7.37	422.5
33.399	7.36	422.5
33.499	7.425	424
33.599	7.42	424
33.699	7.425	424
33.799	7.46	425
33.899	7.465	425
33.999	7.46	425
34.099	7.44	424.5
34.199	7.45	425
34.299	7.475	426
34.399	7.87	436
34.499	7.84	435.5
34.599	7.83	435.5
34.699	7.835	435.5
34.799	8.105	441.5
34.899	8.045	440.5
34.999	8.055	441
35.099	8.145	443
35.209	8.165	443.5
35.299	8.165	443.5
35.399	8.17	443.5
35.499	8.18	443.5
35.599	8.18	444
35.699	8.18	444
35.799	8.185	444
35.899	8.185	444
35.999	8.19	444
36.099	8.19	444
36.199	8.19	444
36.299	8.19	444
36.399	8.195	444.5
36.499	8.2	444
36.599	8.195	444
36.699	8.48	450.5
36.8	8.35	448.5
36.899	8.3	447.5
36.999	8.3	447.5
37.099	8.32	447.5
37.199	8.345	448
37.299	8.355	448
37.4	8.385	449
37.5	8.45	450.5
37.599	8.44	450
37.699	8.475	450.5
37.799	8.515	451.5
37.899	8.52	451.5
37.999	8.525	451.5
38.099	8.53	451.5
38.199	8.655	454.5
38.299	8.71	455.5
38.399	8.71	455.5
38.499	8.715	455.5
38.599	8.71	456
38.699	8.695	455.5
38.799	8.78	457
38.899	8.81	457.5
38.999	8.785	457.5
39.099	8.78	457
39.199	8.79	457.5
39.299	8.81	458
39.406	8.895	460
39.499	8.89	459.5
39.599	9.04	462.5
39.699	9.025	462
39.799	9.095	464
39.899	9.105	463.5
39.999	9.115	464.5
40.099	9.1	464
40.199	9.1	464
40.299	9.105	464
40.399	9.105	464
40.499	9.105	464
40.599	9.105	464
40.699	9.105	464
40.799	9.11	464
40.899	9.11	464
40.999	9.11	464
41.099	9.11	464.5
41.199	9.11	464
41.299	9.11	464
41.4	9.115	464
41.499	9.115	463.5
41.599	9.115	464
41.699	9.115	464
41.799	9.115	464
41.899	9.115	464
41.999	9.12	464
42.099	9.12	464
42.199	9.12	464.5
42.299	9.125	464.5
42.4	9.125	464
42.5	9.125	464.5
42.599	9.125	464.5
42.7	9.13	465
42.8	9.13	464.5
42.9	9.125	464.5
43	9.13	464.5
43.1	9.13	464
43.2	9.13	464.5
43.3	9.13	464.5
43.4	9.13	464
43.5	9.135	464
43.6	9.135	464.5
43.7	9.135	464.5
43.8	9.135	464.5
43.9	9.135	464.5
44	9.135	464.5
44.1	9.135	464.5
44.2	9.135	464.5
44.3	9.135	464.5
44.4	9.135	464.5
44.5	9.135	464.5
44.6	9.135	464.5
44.7	9.135	465
44.8	9.135	464.5
44.9	9.14	465
45	9.135	464.5
45.1	9.135	464.5
45.2	9.135	464.5
45.3	9.14	464.5
45.4	9.135	464.5
45.5	9.135	464.5
45.6	9.135	464.5
45.7	9.135	465
45.8	9.14	464.5
45.9	9.135	465
46	9.135	464.5
46.1	9.14	464.5
46.2	9.135	464.5
46.3	9.135	465.5
46.4	9.135	464.5
46.5	9.135	464.5
46.6	9.135	464.5
46.7	9.135	464.5
46.8	9.135	464.5
46.9	9.135	464.5
47	9.135	464.5
47.1	9.135	464.5
47.2	9.135	464.5
47.3	9.135	464
47.4	9.135	464.5
47.5	9.135	464.5
47.6	9.135	464.5
47.7	9.135	465
47.8	9.135	464.5
47.9	9.135	465
48	9.135	464.5
48.1	8.86	459.5
48.2	8.695	456.5
48.3	8.71	456.5
48.4	8.715	457
48.5	8.715	456.5
48.6	8.715	456.5
48.7	8.725	456.5
48.8	8.915	461
48.9	9.135	464.5
49	9.105	464
49.1	9.11	464
49.2	9.115	464
49.3	9.11	464.5
49.4	9.115	464.5
49.5	9.105	464
49.6	9.1	464
49.7	9.095	464
49.8	9.09	464
49.899	9.085	464
49.999	9.08	464
50.099	9.085	463.5
50.2	9.085	463.5
50.3	9.08	464
50.4	9.085	464
50.499	9.08	463.5
50.6	9.085	463.5
50.699	9.085	464
50.799	9.085	463.5
50.899	9.08	463.5
50.999	9.08	463.5
51.099	9.08	463.5
51.199	9.075	464
51.299	9.085	463.5
51.4	9.08	463.5
51.5	9.08	463.5
51.599	9.08	463.5
51.699	9.075	463.5
51.799	9.08	463.5
51.899	9.075	464.5
51.999	9.075	463.5
52.099	9.08	463.5
52.199	9.08	463.5
52.299	9.065	463.5
52.399	9.07	463.5
52.499	9.055	463
52.599	9.005	462
52.699	9.01	462.5
52.799	8.985	462
52.899	8.99	462
52.999	8.975	461.5
53.099	8.98	462
53.199	8.975	461.5
53.299	8.995	462
53.399	9.115	464.5
53.499	9.15	464.5
53.599	9.15	465
53.699	9.15	464.5
53.799	9.145	464.5
53.9	9.145	464.5
54	9.145	464.5
54.1	9.145	464.5
54.199	9.145	464.5
54.299	9.145	464
54.399	9.145	464.5
54.499	9.15	464.5
54.599	9.145	464.5
54.699	9.145	464.5
54.799	9.145	464.5
54.899	9.145	464.5
54.999	9.145	464.5
55.099	9.145	464.5
55.199	9.145	464.5
55.299	9.145	464.5
55.399	9.145	464.5
55.499	9.145	464.5
55.599	9.145	464.5
55.699	9.145	464.5
55.799	9.145	464.5
55.899	9.145	464.5
55.999	9.14	464.5
56.099	9.145	464.5
56.199	9.14	464.5
56.299	9.14	464.5
56.399	9.14	464.5
56.499	9.14	464.5
56.599	9.14	464.5
56.699	9.14	464.5
56.799	9.14	464.5
56.899	9.145	464.5
56.999	9.14	464.5
57.099	9.14	464.5
57.199	9.14	464.5
57.299	9.14	464.5
